Data table for Real componets Re[epsilon] for Argon gas
Re values are multiplied by 1e4 to better display the scale
Energy[eV]	Re*1e4
0.909091	4.61786
1.81818	4.6387
2.72727	4.67402
3.63636	4.72471
4.54545	4.79307
5.45455	4.87938
6.36364	4.9869
7.27273	5.11949
8.18182	5.2823
9.09091	5.48238
10	5.73217
10.9091	6.04553
11.8182	6.45085
12.7273	6.99671
13.6364	7.78064
14.5455	9.0855
15.4545	12.4728
16.3636	10.9649
17.2727	8.60302
18.1818	7.08683
19.0909	5.93458
20	4.87327
20.9091	3.9312
21.8182	3.09523
22.7273	2.09068
23.6364	1.32787
24.5455	0.637301
25.4545	-0.177632
26.3636	-1.39232
27.2727	-1.44857
28.1818	-2.11989
29.0909	-2.61796
30	-3.11062
30.9091	-3.01633
31.8182	-3.17056
32.7273	-3.41445
33.6364	-3.38753
34.5455	-3.32296
35.4545	-3.24732
36.3636	-3.20592
37.2727	-2.96962
38.1818	-2.78027
39.0909	-2.50998
40	-2.30171
40.9091	-2.05395
41.8182	-1.87616
42.7273	-1.67957
43.6364	-1.47895
44.5455	-1.3203
45.4545	-1.17683
46.3636	-1.0326
47.2727	-0.917216
48.1818	-0.809344
49.0909	-0.717314
50	-0.63209
50.9091	-0.552829
51.8182	-0.48733
52.7273	-0.424798
53.6364	-0.369105
54.5455	-0.320059
55.4545	-0.276955
56.3636	-0.238007
57.2727	-0.202434
58.1818	-0.169351
59.0909	-0.138306
60	-0.106669
60.9091	-0.0781351
61.8182	-0.055748
62.7273	-0.0346831
63.6364	-0.0143014
64.5455	0.00248944
65.4545	0.017398
66.3636	0.0329066
67.2727	0.0457144
68.1818	0.0596611
69.0909	0.0690855
70	0.0780064
70.9091	0.0896052
71.8182	0.0987065
72.7273	0.105108
73.6364	0.112693
74.5455	0.121652
75.4545	0.125871
76.3636	0.132119
77.2727	0.136343
78.1818	0.140645
79.0909	0.143349
80	0.147993
80.9091	0.153439
81.8182	0.15506
82.7273	0.15774
83.6364	0.162738
84.5455	0.163489
85.4545	0.166174
86.3636	0.171035
87.2727	0.174232
88.1818	0.176819
89.0909	0.177182
90	0.178422
90.9091	0.182209
91.8182	0.18522
92.7273	0.186028
93.6364	0.187251
94.5455	0.191735
95.4545	0.193353
96.3636	0.192781
97.2727	0.189935
98.1818	0.196225
99.0909	0.200331
100	0.201277
100.909	0.203898
101.818	0.205109
102.727	0.204713
103.636	0.203669
104.545	0.203241
105.455	0.205058
106.364	0.20875
107.273	0.211674
108.182	0.212935
109.091	0.213829
110	0.215281
110.909	0.216551
111.818	0.216916
112.727	0.217338
113.636	0.219256
114.545	0.222043
115.455	0.223716
116.364	0.224237
117.273	0.225501
118.182	0.227865
119.091	0.229177
120	0.228445
120.909	0.22803
121.818	0.23016
122.727	0.233255
123.636	0.234437
124.545	0.234173
125.455	0.235048
126.364	0.237288
127.273	0.238824
128.182	0.239052
129.091	0.239693
130	0.241724
130.909	0.243755
131.818	0.244385
132.727	0.244534
133.636	0.24594
134.545	0.248571
135.455	0.251268
136.364	0.253479
137.273	0.255087
138.182	0.256211
139.091	0.257316
140	0.258648
140.909	0.259867
141.818	0.260733
142.727	0.261956
143.636	0.264442
144.545	0.267419
145.455	0.268983
146.364	0.269233
147.273	0.270155
148.182	0.272523
149.091	0.274691
150	0.2759
150.909	0.277338
151.818	0.280317
152.727	0.284029
153.636	0.286863
154.545	0.288439
155.455	0.28912
156.364	0.289356
157.273	0.289803
158.182	0.291079
159.091	0.293942
160	0.298359
160.909	0.302458
161.818	0.304478
162.727	0.304782
163.636	0.304709
164.545	0.305748
165.455	0.309474
166.364	0.315042
167.273	0.318922
168.182	0.32006
169.091	0.321416
170	0.324684
170.909	0.327818
171.818	0.328695
172.727	0.328659
173.636	0.330399
174.545	0.334094
175.455	0.338396
176.364	0.342247
177.273	0.34441
178.182	0.344865
179.091	0.345063
180	0.34627
180.909	0.349853
181.818	0.35554
182.727	0.361157
183.636	0.363826
184.545	0.364937
185.455	0.368706
186.364	0.374897
187.273	0.378734
188.182	0.378874
189.091	0.379249
190	0.382636
190.909	0.3881
191.818	0.393839
192.727	0.398633
193.636	0.401682
194.545	0.403916
195.455	0.407554
196.364	0.412791
197.273	0.418063
198.182	0.422624
199.091	0.426023
200	0.42869
200.909	0.432412
201.818	0.438345
202.727	0.444851
203.636	0.448957
204.545	0.451373
205.455	0.455098
206.364	0.460764
207.273	0.466837
208.182	0.472481
209.091	0.477139
210	0.481635
210.909	0.487409
211.818	0.495708
212.727	0.504725
213.636	0.511662
214.545	0.516789
215.455	0.522405
216.364	0.529406
217.273	0.537556
218.182	0.54616
219.091	0.553647
220	0.559568
220.909	0.565949
221.818	0.575268
222.727	0.587004
223.636	0.599451
224.545	0.611161
225.455	0.620592
226.364	0.628324
227.273	0.63796
228.182	0.651215
229.091	0.666214
230	0.681647
230.909	0.698001
231.818	0.715708
232.727	0.733147
233.636	0.74846
234.545	0.763277
235.455	0.782547
236.364	0.807069
237.273	0.834702
238.182	0.864753
239.091	0.899815
240	0.94034
240.909	0.981247
241.818	1.0366
242.727	1.10414
243.636	1.20581
244.545	1.2669
245.455	1.3214
246.364	1.60659
247.273	1.71123
248.182	1.88006
249.091	1.40103
250	1.2129
250.909	1.08867
251.818	0.994711
252.727	0.91875
253.636	0.85473
254.545	0.799499
255.455	0.750847
256.364	0.707343
257.273	0.668053
258.182	0.632225
259.091	0.599316
260	0.568879
260.909	0.540646
261.818	0.514244
262.727	0.48954
263.636	0.466334
264.545	0.44446
265.455	0.42379
266.364	0.404198
267.273	0.385614
268.182	0.36794
269.091	0.351104
270	0.335041
270.909	0.319694
271.818	0.305012
272.727	0.290933
273.636	0.277448
274.545	0.264504
275.455	0.252068
276.364	0.24011
277.273	0.228601
278.182	0.217516
279.091	0.206832
280	0.196527
280.909	0.186581
281.818	0.177011
282.727	0.167731
283.636	0.158767
284.545	0.150089
285.455	0.141693
286.364	0.133561
287.273	0.125688
288.182	0.118058
289.091	0.110664
290	0.103494
290.909	0.0965402
291.818	0.0897787
292.727	0.0832295
293.636	0.076871
294.545	0.070692
295.455	0.064699
296.364	0.0588701
297.273	0.053205
298.182	0.0476906
299.091	0.0423353
300	0.037127
300.909	0.0320617
301.818	0.0271319
302.727	0.0223344
303.636	0.0176647
304.545	0.0131187
305.455	0.00869303
306.364	0.00437944
307.273	0.000181202
308.182	-0.00390872
309.091	-0.00789034
310	-0.0117735
310.909	-0.0155572
311.818	-0.0192449
312.727	-0.0228396
313.636	-0.0263439
314.545	-0.0297605
315.455	-0.033092
316.364	-0.0363422
317.273	-0.0395106
318.182	-0.0426009
319.091	-0.0456091
320	-0.0485497
320.909	-0.0514185
321.818	-0.0542179
322.727	-0.056949
323.636	-0.0596139
324.545	-0.0622144
325.455	-0.0647523
326.364	-0.0672348
327.273	-0.0696522
328.182	-0.0720118
329.091	-0.0743149
330	-0.0765658
330.909	-0.0787603
331.818	-0.0808996
332.727	-0.082991
333.636	-0.0850327
334.545	-0.087026
335.455	-0.088972
336.364	-0.0908719
337.273	-0.0927269
338.182	-0.0945379
339.091	-0.0963061
340	-0.0980325
340.909	-0.0997181
341.818	-0.101364
342.727	-0.10297
343.636	-0.104539
344.545	-0.106064
345.455	-0.107578
346.364	-0.109038
347.273	-0.110446
348.182	-0.111837
349.091	-0.113195
350	-0.114521
350.909	-0.115815
351.818	-0.117079
352.727	-0.118333
353.636	-0.119537
354.545	-0.120711
355.455	-0.121836
356.364	-0.122955
357.273	-0.124047
358.182	-0.125112
359.091	-0.126151
360	-0.127165
360.909	-0.128154
361.818	-0.129119
362.727	-0.130061
363.636	-0.130999
364.545	-0.131894
365.455	-0.132767
366.364	-0.133618
367.273	-0.134448
368.182	-0.135257
369.091	-0.136045
370	-0.136814
370.909	-0.137562
371.818	-0.138292
372.727	-0.139003
373.636	-0.139695
374.545	-0.140369
375.455	-0.141026
376.364	-0.141665
377.273	-0.142287
378.182	-0.142893
379.091	-0.143482
380	-0.144056
380.909	-0.144613
381.818	-0.145156
382.727	-0.145683
383.636	-0.146196
384.545	-0.146694
385.455	-0.147178
386.364	-0.147648
387.273	-0.148104
388.182	-0.148539
389.091	-0.148969
390	-0.149386
390.909	-0.149791
391.818	-0.150184
392.727	-0.150564
393.636	-0.150932
394.545	-0.151289
395.455	-0.151635
396.364	-0.151969
397.273	-0.152293
398.182	-0.152605
399.091	-0.152907
400	-0.153199
400.909	-0.153481
401.818	-0.153752
402.727	-0.154014
403.636	-0.154267
404.545	-0.15451
405.455	-0.154744
406.364	-0.154968
407.273	-0.155184
408.182	-0.155392
409.091	-0.15559
410	-0.155781
410.909	-0.155963
411.818	-0.156145
412.727	-0.156311
413.636	-0.156469
414.545	-0.156612
415.455	-0.156756
416.364	-0.156892
417.273	-0.157021
418.182	-0.157142
419.091	-0.157257
420	-0.157366
420.909	-0.157467
421.818	-0.157562
422.727	-0.157651
423.636	-0.157733
424.545	-0.157809
425.455	-0.157879
426.364	-0.157943
427.273	-0.158001
428.182	-0.158054
429.091	-0.158101
430	-0.158149
430.909	-0.158185
431.818	-0.158216
432.727	-0.158241
433.636	-0.158262
434.545	-0.158277
435.455	-0.158287
436.364	-0.158293
437.273	-0.158294
438.182	-0.15829
439.091	-0.158282
440	-0.158262
440.909	-0.158245
441.818	-0.158223
442.727	-0.158198
443.636	-0.158168
444.545	-0.158134
445.455	-0.158096
446.364	-0.158054
447.273	-0.158008
448.182	-0.157959
449.091	-0.157905
450	-0.157849
450.909	-0.157788
451.818	-0.157724
452.727	-0.157657
453.636	-0.157586
454.545	-0.157518
455.455	-0.157434
456.364	-0.157354
457.273	-0.15727
458.182	-0.157184
459.091	-0.157094
460	-0.157002
460.909	-0.156906
461.818	-0.156808
462.727	-0.156707
463.636	-0.156603
464.545	-0.156496
465.455	-0.156387
466.364	-0.156276
467.273	-0.156159
468.182	-0.156042
469.091	-0.155923
470	-0.155802
470.909	-0.155678
471.818	-0.155552
472.727	-0.155424
473.636	-0.155293
474.545	-0.155161
475.455	-0.155026
476.364	-0.154889
477.273	-0.15475
478.182	-0.154609
479.091	-0.154467
480	-0.154322
480.909	-0.154176
481.818	-0.154027
482.727	-0.153877
483.636	-0.153725
484.545	-0.153572
485.455	-0.153416
486.364	-0.153259
487.273	-0.153101
488.182	-0.15294
489.091	-0.152779
490	-0.152616
490.909	-0.152451
491.818	-0.152285
492.727	-0.152117
493.636	-0.151948
494.545	-0.151778
495.455	-0.151606
496.364	-0.151433
497.273	-0.151259
498.182	-0.151083
499.091	-0.150907
500	-0.150729
500.909	-0.15055
501.818	-0.150369
502.727	-0.150188
503.636	-0.150006
504.545	-0.149822
505.455	-0.149637
506.364	-0.149452
507.273	-0.149265
508.182	-0.149078
509.091	-0.148889
510	-0.1487
510.909	-0.148509
511.818	-0.148318
512.727	-0.148126
513.636	-0.147933
514.545	-0.14774
515.455	-0.147545
516.364	-0.14735
517.273	-0.147154
518.182	-0.146957
519.091	-0.146759
520	-0.146561
520.909	-0.146362
521.818	-0.146162
522.727	-0.145962
523.636	-0.145761
524.545	-0.14556
525.455	-0.145358
526.364	-0.145155
527.273	-0.144952
528.182	-0.144748
529.091	-0.144544
530	-0.144339
530.909	-0.144134
531.818	-0.143928
532.727	-0.143722
533.636	-0.143515
534.545	-0.143308
535.455	-0.1431
536.364	-0.142892
537.273	-0.142683
538.182	-0.142475
539.091	-0.142265
540	-0.142056
540.909	-0.141846
541.818	-0.141636
542.727	-0.141425
543.636	-0.141214
544.545	-0.141003
545.455	-0.140792
546.364	-0.14058
547.273	-0.140368
548.182	-0.140156
549.091	-0.139943
550	-0.13973
550.909	-0.139517
551.818	-0.139304
552.727	-0.139091
553.636	-0.138877
554.545	-0.138663
555.455	-0.13845
556.364	-0.138235
557.273	-0.138021
558.182	-0.137807
559.091	-0.137592
560	-0.137378
560.909	-0.137163
561.818	-0.136948
562.727	-0.136733
563.636	-0.136518
564.545	-0.136303
565.455	-0.136088
566.364	-0.135872
567.273	-0.135657
568.182	-0.135442
569.091	-0.135226
570	-0.135011
570.909	-0.134795
571.818	-0.13458
572.727	-0.134365
573.636	-0.134149
574.545	-0.133934
575.455	-0.133718
576.364	-0.133503
577.273	-0.133287
578.182	-0.133072
579.091	-0.132856
580	-0.132641
580.909	-0.132426
581.818	-0.13221
582.727	-0.131995
583.636	-0.13178
584.545	-0.131565
585.455	-0.13135
586.364	-0.131135
587.273	-0.13092
588.182	-0.130705
589.091	-0.130491
590	-0.130276
590.909	-0.130062
591.818	-0.129847
592.727	-0.129633
593.636	-0.129419
594.545	-0.129205
595.455	-0.128991
596.364	-0.128778
597.273	-0.128564
598.182	-0.128351
599.091	-0.128137
600	-0.127924
600.909	-0.127711
601.818	-0.127499
602.727	-0.127286
603.636	-0.127074
604.545	-0.126861
605.455	-0.126649
606.364	-0.126437
607.273	-0.126225
608.182	-0.126014
609.091	-0.125802
610	-0.125591
610.909	-0.12538
611.818	-0.12517
612.727	-0.124959
613.636	-0.124749
614.545	-0.124538
615.455	-0.124328
616.364	-0.124119
617.273	-0.123909
618.182	-0.1237
619.091	-0.123491
620	-0.123282
620.909	-0.123074
621.818	-0.122865
622.727	-0.122657
623.636	-0.122449
624.545	-0.122241
625.455	-0.122034
626.364	-0.121827
627.273	-0.12162
628.182	-0.121413
629.091	-0.121207
630	-0.121001
630.909	-0.120795
631.818	-0.120589
632.727	-0.120384
633.636	-0.120179
634.545	-0.119974
635.455	-0.11977
636.364	-0.119565
637.273	-0.119361
638.182	-0.119158
639.091	-0.118954
640	-0.118751
640.909	-0.118548
641.818	-0.118345
642.727	-0.118143
643.636	-0.117941
644.545	-0.117739
645.455	-0.117538
646.364	-0.117337
647.273	-0.117136
648.182	-0.116935
649.091	-0.116735
650	-0.116535
650.909	-0.116335
651.818	-0.116136
652.727	-0.115937
653.636	-0.115738
654.545	-0.115539
655.455	-0.115341
656.364	-0.115143
657.273	-0.114946
658.182	-0.114748
659.091	-0.114551
660	-0.114355
660.909	-0.114158
661.818	-0.113962
662.727	-0.113766
663.636	-0.113571
664.545	-0.113376
665.455	-0.113181
666.364	-0.112987
667.273	-0.112793
668.182	-0.112599
669.091	-0.112405
670	-0.112212
670.909	-0.112019
671.818	-0.111827
672.727	-0.111634
673.636	-0.111442
674.545	-0.111251
675.455	-0.11106
676.364	-0.110869
677.273	-0.110678
678.182	-0.110488
679.091	-0.110298
680	-0.110108
680.909	-0.109919
681.818	-0.10973
682.727	-0.109541
683.636	-0.109353
684.545	-0.109165
685.455	-0.108977
686.364	-0.10879
687.273	-0.108603
688.182	-0.108416
689.091	-0.10823
690	-0.108044
690.909	-0.107858
691.818	-0.107673
692.727	-0.107488
693.636	-0.107303
694.545	-0.107119
695.455	-0.106935
696.364	-0.106751
697.273	-0.106568
698.182	-0.106385
699.091	-0.106202
700	-0.10602
700.909	-0.105838
701.818	-0.105656
702.727	-0.105474
703.636	-0.105293
704.545	-0.105113
705.455	-0.104932
706.364	-0.104752
707.273	-0.104573
708.182	-0.104393
709.091	-0.104214
710	-0.104036
710.909	-0.103857
711.818	-0.103679
712.727	-0.103502
713.636	-0.103325
714.545	-0.103148
715.455	-0.102971
716.364	-0.102795
717.273	-0.102619
718.182	-0.102443
719.091	-0.102268
720	-0.102093
720.909	-0.101918
721.818	-0.101744
722.727	-0.10157
723.636	-0.101396
724.545	-0.101223
725.455	-0.10105
726.364	-0.100877
727.273	-0.100705
728.182	-0.100533
729.091	-0.100361
730	-0.10019
730.909	-0.100019
731.818	-0.0998357
732.727	-0.0996655
733.636	-0.0994955
734.545	-0.0993259
735.455	-0.0991567
736.364	-0.0989877
737.273	-0.0988191
738.182	-0.0986508
739.091	-0.0984829
740	-0.0983153
740.909	-0.098148
741.818	-0.097981
742.727	-0.0978144
743.636	-0.0976481
744.545	-0.0974822
745.455	-0.0973165
746.364	-0.0971512
747.273	-0.0969863
748.182	-0.0968216
749.091	-0.0966573
750	-0.0964933
750.909	-0.0963296
751.818	-0.0961663
752.727	-0.0960033
753.636	-0.0958406
754.545	-0.0956782
755.455	-0.0955162
756.364	-0.0953545
757.273	-0.0951931
758.182	-0.095032
759.091	-0.0948713
760	-0.0947109
760.909	-0.0945508
761.818	-0.094391
762.727	-0.0942316
763.636	-0.0940724
764.545	-0.0939136
765.455	-0.0937551
766.364	-0.093597
767.273	-0.0934391
768.182	-0.0932816
769.091	-0.0931244
770	-0.0929675
770.909	-0.0928109
771.818	-0.0926547
772.727	-0.0924987
773.636	-0.0923431
774.545	-0.0921878
775.455	-0.0920328
776.364	-0.0918782
777.273	-0.0917238
778.182	-0.0915698
779.091	-0.0914161
780	-0.0912626
780.909	-0.0911095
781.818	-0.0909568
782.727	-0.0908043
783.636	-0.0906521
784.545	-0.0905003
785.455	-0.0903487
786.364	-0.0901975
787.273	-0.0900466
788.182	-0.089896
789.091	-0.0897456
790	-0.0895957
790.909	-0.089446
791.818	-0.0892966
792.727	-0.0891475
793.636	-0.0890134
794.545	-0.0888649
795.455	-0.0887167
796.364	-0.0885689
797.273	-0.0884213
798.182	-0.0882741
799.091	-0.0881272
800	-0.0879805
800.909	-0.0878342
801.818	-0.0876881
802.727	-0.0875424
803.636	-0.087397
804.545	-0.0872518
805.455	-0.087107
806.364	-0.0869625
807.273	-0.0868182
808.182	-0.0866743
809.091	-0.0865306
810	-0.0863873
810.909	-0.0862442
811.818	-0.0861015
812.727	-0.085959
813.636	-0.0858168
814.545	-0.0856749
815.455	-0.0855334
816.364	-0.0853921
817.273	-0.0852511
818.182	-0.0851104
819.091	-0.0849699
820	-0.0848298
820.909	-0.08469
821.818	-0.0845504
822.727	-0.0844112
823.636	-0.0842722
824.545	-0.0841335
825.455	-0.0839951
826.364	-0.083857
827.273	-0.0837192
828.182	-0.0835816
829.091	-0.0834444
830	-0.0833074
830.909	-0.0831707
831.818	-0.0830343
832.727	-0.0828982
833.636	-0.0827623
834.545	-0.0826268
835.455	-0.0824915
836.364	-0.0823565
837.273	-0.0822218
838.182	-0.0820873
839.091	-0.0819532
840	-0.0818193
840.909	-0.0816857
841.818	-0.0815523
842.727	-0.0814193
843.636	-0.0812865
844.545	-0.081154
845.455	-0.0810217
846.364	-0.0808898
847.273	-0.0807581
848.182	-0.0806267
849.091	-0.0804955
850	-0.0803647
850.909	-0.0802341
851.818	-0.0801037
852.727	-0.0799737
853.636	-0.0798439
854.545	-0.0797143
855.455	-0.0795851
856.364	-0.0794561
857.273	-0.0793274
858.182	-0.0791989
859.091	-0.0790707
860	-0.0789428
860.909	-0.0788151
861.818	-0.0786877
862.727	-0.0785606
863.636	-0.0784337
864.545	-0.0783071
865.455	-0.0781808
866.364	-0.0780547
867.273	-0.0779289
868.182	-0.0778033
869.091	-0.077678
870	-0.0775529
870.909	-0.0774281
871.818	-0.0773036
872.727	-0.0771793
873.636	-0.0770553
874.545	-0.0769315
875.455	-0.076808
876.364	-0.0766848
877.273	-0.0765618
878.182	-0.076439
879.091	-0.0763165
880	-0.0761943
880.909	-0.0760723
881.818	-0.0759505
882.727	-0.0758291
883.636	-0.0757078
884.545	-0.0755868
885.455	-0.0754661
886.364	-0.0753456
887.273	-0.0752254
888.182	-0.0751054
889.091	-0.0749856
890	-0.0748661
890.909	-0.0747468
891.818	-0.0746278
892.727	-0.0745091
893.636	-0.0743905
894.545	-0.0742722
895.455	-0.0741542
896.364	-0.0740364
897.273	-0.0739188
898.182	-0.0738015
899.091	-0.0736845
900	-0.0735676
900.909	-0.073451
901.818	-0.0733347
902.727	-0.0732185
903.636	-0.0731027
904.545	-0.072987
905.455	-0.0728716
906.364	-0.0727564
907.273	-0.0726415
908.182	-0.0725268
909.091	-0.0724123
910	-0.0722981
910.909	-0.0721841
911.818	-0.0720703
912.727	-0.0719568
913.636	-0.0718435
914.545	-0.0717304
915.455	-0.0716176
916.364	-0.071505
917.273	-0.0713926
918.182	-0.0712805
919.091	-0.0711685
920	-0.0710568
920.909	-0.0709454
921.818	-0.0708341
922.727	-0.0707231
923.636	-0.0706123
924.545	-0.0705018
925.455	-0.0703827
926.364	-0.0702726
927.273	-0.0701627
928.182	-0.0700531
929.091	-0.0699436
930	-0.0698344
930.909	-0.0697254
931.818	-0.0696166
932.727	-0.0695081
933.636	-0.0693997
934.545	-0.0692916
935.455	-0.0691837
936.364	-0.069076
937.273	-0.0689686
938.182	-0.0688613
939.091	-0.0687543
940	-0.0686475
940.909	-0.0685409
941.818	-0.0684345
942.727	-0.0683284
943.636	-0.0682224
944.545	-0.0681167
945.455	-0.0680112
946.364	-0.0679058
947.273	-0.0678007
948.182	-0.0676959
949.091	-0.0675912
950	-0.0674867
950.909	-0.0673825
951.818	-0.0672784
952.727	-0.0671746
953.636	-0.067071
954.545	-0.0669675
955.455	-0.0668643
956.364	-0.0667613
957.273	-0.0666585
958.182	-0.0665559
959.091	-0.0664536
960	-0.0663514
960.909	-0.0662494
961.818	-0.0661476
962.727	-0.0660461
963.636	-0.0659447
964.545	-0.0658435
965.455	-0.0657426
966.364	-0.0656418
967.273	-0.0655413
968.182	-0.0654409
969.091	-0.0653408
970	-0.0652408
970.909	-0.065141
971.818	-0.0650415
972.727	-0.0649421
973.636	-0.064843
974.545	-0.064744
975.455	-0.0646452
976.364	-0.0645467
977.273	-0.0644483
978.182	-0.0643501
979.091	-0.0642521
980	-0.0641543
980.909	-0.0640567
981.818	-0.0639593
982.727	-0.0638621
983.636	-0.0637651
984.545	-0.0636683
985.455	-0.0635717
986.364	-0.0634752
987.273	-0.063379
988.182	-0.0632829
989.091	-0.0631871
990	-0.0630914
990.909	-0.0629959
991.818	-0.0629006
992.727	-0.0628055
993.636	-0.0627106
994.545	-0.0626158
995.455	-0.0625213
996.364	-0.0624269
997.273	-0.0623327
998.182	-0.0622387
999.091	-0.0621449
1000	-0.0620513
1000.91	-0.0619578
1001.82	-0.0618646
1002.73	-0.0617715
1003.64	-0.0616819
1004.55	-0.0615891
1005.45	-0.0614966
1006.36	-0.0614043
1007.27	-0.0613121
1008.18	-0.0612201
1009.09	-0.0611283
1010	-0.0610367
1010.91	-0.0609452
1011.82	-0.0608539
1012.73	-0.0607628
1013.64	-0.0606719
1014.55	-0.0605812
1015.45	-0.0604906
1016.36	-0.0604002
1017.27	-0.06031
1018.18	-0.06022
1019.09	-0.0601301
1020	-0.0600405
1020.91	-0.0599509
1021.82	-0.0598616
1022.73	-0.0597724
1023.64	-0.0596835
1024.55	-0.0595946
1025.45	-0.059506
1026.36	-0.0594175
1027.27	-0.0593292
1028.18	-0.0592411
1029.09	-0.0591531
1030	-0.0590654
1030.91	-0.0589777
1031.82	-0.0588903
1032.73	-0.058803
1033.64	-0.0587159
1034.55	-0.058629
1035.45	-0.0585422
1036.36	-0.0584556
1037.27	-0.0583691
1038.18	-0.0582829
1039.09	-0.0581968
1040	-0.0581108
1040.91	-0.058025
1041.82	-0.0579394
1042.73	-0.057854
1043.64	-0.0577687
1044.55	-0.0576836
1045.45	-0.0575986
1046.36	-0.0575138
1047.27	-0.0574292
1048.18	-0.0573447
1049.09	-0.0572604
1050	-0.0571763
1050.91	-0.0570923
1051.82	-0.0570085
1052.73	-0.0569248
1053.64	-0.0568413
1054.55	-0.056758
1055.45	-0.0566748
1056.36	-0.0565918
1057.27	-0.0565089
1058.18	-0.0564262
1059.09	-0.0563436
1060	-0.0562613
1060.91	-0.056179
1061.82	-0.0560969
1062.73	-0.056015
1063.64	-0.0559332
1064.55	-0.0558516
1065.45	-0.0557702
1066.36	-0.0556889
1067.27	-0.0556077
1068.18	-0.0555267
1069.09	-0.0554459
1070	-0.0553652
1070.91	-0.0552847
1071.82	-0.0552043
1072.73	-0.055124
1073.64	-0.055044
1074.55	-0.054964
1075.45	-0.0548842
1076.36	-0.0548046
1077.27	-0.0547251
1078.18	-0.0546458
1079.09	-0.0545666
1080	-0.0544876
1080.91	-0.0544087
1081.82	-0.05433
1082.73	-0.0542514
1083.64	-0.054173
1084.55	-0.0540947
1085.45	-0.0540165
1086.36	-0.0539385
1087.27	-0.0538607
1088.18	-0.053783
1089.09	-0.0537054
1090	-0.053628
1090.91	-0.0535507
1091.82	-0.0534736
1092.73	-0.0533966
1093.64	-0.0533198
1094.55	-0.0532431
1095.45	-0.0531665
1096.36	-0.0530901
1097.27	-0.0530138
1098.18	-0.0529377
1099.09	-0.0528617
1100	-0.0527859
1100.91	-0.0527102
1101.82	-0.0526346
1102.73	-0.0525592
1103.64	-0.0524839
1104.55	-0.0524088
1105.45	-0.0523338
1106.36	-0.0522589
1107.27	-0.0521842
1108.18	-0.0521096
1109.09	-0.0520352
1110	-0.0519609
1110.91	-0.0518867
1111.82	-0.0518127
1112.73	-0.0517388
1113.64	-0.051665
1114.55	-0.0515914
1115.45	-0.0515179
1116.36	-0.0514445
1117.27	-0.0513713
1118.18	-0.0512982
1119.09	-0.0512253
1120	-0.0511525
1120.91	-0.0510798
1121.82	-0.0510072
1122.73	-0.0509348
1123.64	-0.0508625
1124.55	-0.0507904
1125.45	-0.0507184
1126.36	-0.0506465
1127.27	-0.0505747
1128.18	-0.0505031
1129.09	-0.0504316
1130	-0.0503602
1130.91	-0.050289
1131.82	-0.0502179
1132.73	-0.0501469
1133.64	-0.0500761
1134.55	-0.0500054
1135.45	-0.0499348
1136.36	-0.0498643
1137.27	-0.049794
1138.18	-0.0497238
1139.09	-0.0496537
1140	-0.0495838
1140.91	-0.0495139
1141.82	-0.0494442
1142.73	-0.0493747
1143.64	-0.0493052
1144.55	-0.0492359
1145.45	-0.0491667
1146.36	-0.0490977
1147.27	-0.0490287
1148.18	-0.0489599
1149.09	-0.0488912
1150	-0.0488226
1150.91	-0.0487542
1151.82	-0.0486859
1152.73	-0.0486177
1153.64	-0.0485496
1154.55	-0.0484817
1155.45	-0.0484138
1156.36	-0.0483461
1157.27	-0.0482785
1158.18	-0.0482111
1159.09	-0.0481437
1160	-0.0480765
1160.91	-0.0480094
1161.82	-0.0479424
1162.73	-0.0478755
1163.64	-0.0478088
1164.55	-0.0477422
1165.45	-0.0476757
1166.36	-0.0476093
1167.27	-0.047543
1168.18	-0.0474769
1169.09	-0.0474108
1170	-0.0473449
1170.91	-0.0472791
1171.82	-0.0472134
1172.73	-0.0471479
1173.64	-0.0470824
1174.55	-0.0470171
1175.45	-0.0469519
1176.36	-0.0468868
1177.27	-0.0468218
1178.18	-0.0467569
1179.09	-0.0466922
1180	-0.0466275
1180.91	-0.046563
1181.82	-0.0464986
1182.73	-0.0464343
1183.64	-0.0463701
1184.55	-0.0463061
1185.45	-0.0462421
1186.36	-0.0461783
1187.27	-0.0461145
1188.18	-0.0460509
1189.09	-0.0459874
1190	-0.045924
1190.91	-0.0458607
1191.82	-0.0457975
1192.73	-0.0457345
1193.64	-0.0456715
1194.55	-0.0456087
1195.45	-0.045546
1196.36	-0.0454833
1197.27	-0.0454208
1198.18	-0.0453584
1199.09	-0.0452961
1200	-0.045234
1200.91	-0.0451719
1201.82	-0.0451099
1202.73	-0.0450481
1203.64	-0.0449863
1204.55	-0.0449247
1205.45	-0.0448631
1206.36	-0.0448017
1207.27	-0.0447404
1208.18	-0.0446792
1209.09	-0.0446181
1210	-0.0445571
1210.91	-0.0444962
1211.82	-0.0444354
1212.73	-0.0443747
1213.64	-0.0443141
1214.55	-0.0442536
1215.45	-0.0441933
1216.36	-0.044133
1217.27	-0.0440728
1218.18	-0.0440128
1219.09	-0.0439528
1220	-0.043893
1220.91	-0.0438332
1221.82	-0.0437736
1222.73	-0.043714
1223.64	-0.0436546
1224.55	-0.0435953
1225.45	-0.043536
1226.36	-0.0434769
1227.27	-0.0434179
1228.18	-0.0433589
1229.09	-0.0433001
1230	-0.0432414
1230.91	-0.0431827
1231.82	-0.0431242
1232.73	-0.0430658
1233.64	-0.0430075
1234.55	-0.0429492
1235.45	-0.0428911
1236.36	-0.0428331
1237.27	-0.0427751
1238.18	-0.0427173
1239.09	-0.0426596
1240	-0.0426019
1240.91	-0.0425444
1241.82	-0.042487
1242.73	-0.0424296
1243.64	-0.0423724
1244.55	-0.0423152
1245.45	-0.0422582
1246.36	-0.0422012
1247.27	-0.0421444
1248.18	-0.0420876
1249.09	-0.042031
1250	-0.0419744
1250.91	-0.0419179
1251.82	-0.0418616
1252.73	-0.0418053
1253.64	-0.0417491
1254.55	-0.041693
1255.45	-0.041637
1256.36	-0.0415811
1257.27	-0.0415253
1258.18	-0.0414696
1259.09	-0.041414
1260	-0.0413584
1260.91	-0.041303
1261.82	-0.0412477
1262.73	-0.0411924
1263.64	-0.0411373
1264.55	-0.0410822
1265.45	-0.0410272
1266.36	-0.0409723
1267.27	-0.0409176
1268.18	-0.0408629
1269.09	-0.0408083
1270	-0.0407538
1270.91	-0.0406993
1271.82	-0.040645
1272.73	-0.0405908
1273.64	-0.0405366
1274.55	-0.0404826
1275.45	-0.0404286
1276.36	-0.0403747
1277.27	-0.0403209
1278.18	-0.0402672
1279.09	-0.0402136
1280	-0.0401601
1280.91	-0.0401067
1281.82	-0.0400533
1282.73	-0.0400001
1283.64	-0.0399469
1284.55	-0.0398938
1285.45	-0.0398408
1286.36	-0.0397879
1287.27	-0.0397351
1288.18	-0.0396824
1289.09	-0.0396297
1290	-0.0395772
1290.91	-0.0395247
1291.82	-0.0394723
1292.73	-0.03942
1293.64	-0.0393678
1294.55	-0.0393157
1295.45	-0.0392636
1296.36	-0.0392117
1297.27	-0.0391598
1298.18	-0.039108
1299.09	-0.0390563
1300	-0.0390047
1300.91	-0.0389532
1301.82	-0.0389017
1302.73	-0.0388504
1303.64	-0.0387991
1304.55	-0.0387479
1305.45	-0.0386968
1306.36	-0.0386458
1307.27	-0.0385948
1308.18	-0.038544
1309.09	-0.0384932
1310	-0.0384425
1310.91	-0.0383919
1311.82	-0.0383414
1312.73	-0.0382909
1313.64	-0.0382405
1314.55	-0.0381903
1315.45	-0.0381401
1316.36	-0.0380899
1317.27	-0.0380399
1318.18	-0.0379899
1319.09	-0.0379401
1320	-0.0378903
1320.91	-0.0378405
1321.82	-0.0377909
1322.73	-0.0377413
1323.64	-0.0376919
1324.55	-0.0376425
1325.45	-0.0375931
1326.36	-0.0375439
1327.27	-0.0374947
1328.18	-0.0374457
1329.09	-0.0373967
1330	-0.0373477
1330.91	-0.0372989
1331.82	-0.0372501
1332.73	-0.0372014
1333.64	-0.0371528
1334.55	-0.0371043
1335.45	-0.0370558
1336.36	-0.0370075
1337.27	-0.0369592
1338.18	-0.0369109
1339.09	-0.0368628
1340	-0.0368147
1340.91	-0.0367667
1341.82	-0.0367188
1342.73	-0.036671
1343.64	-0.0366232
1344.55	-0.0365755
1345.45	-0.0365279
1346.36	-0.0364804
1347.27	-0.0364313
1348.18	-0.0363839
1349.09	-0.0363366
1350	-0.0362893
1350.91	-0.0362422
1351.82	-0.0361951
1352.73	-0.0361481
1353.64	-0.0361011
1354.55	-0.0360543
1355.45	-0.0360075
1356.36	-0.0359607
1357.27	-0.0359141
1358.18	-0.0358675
1359.09	-0.035821
1360	-0.0357746
1360.91	-0.0357283
1361.82	-0.035682
1362.73	-0.0356358
1363.64	-0.0355896
1364.55	-0.0355436
1365.45	-0.0354976
1366.36	-0.0354517
1367.27	-0.0354058
1368.18	-0.0353601
1369.09	-0.0353144
1370	-0.0352687
1370.91	-0.0352232
1371.82	-0.0351777
1372.73	-0.0351323
1373.64	-0.0350869
1374.55	-0.0350417
1375.45	-0.0349965
1376.36	-0.0349513
1377.27	-0.0349063
1378.18	-0.0348613
1379.09	-0.0348163
1380	-0.0347715
1380.91	-0.0347267
1381.82	-0.034682
1382.73	-0.0346374
1383.64	-0.0345928
1384.55	-0.0345483
1385.45	-0.0345038
1386.36	-0.0344595
1387.27	-0.0344152
1388.18	-0.0343709
1389.09	-0.0343268
1390	-0.0342827
1390.91	-0.0342386
1391.82	-0.0341947
1392.73	-0.0341508
1393.64	-0.034107
1394.55	-0.0340632
1395.45	-0.0340195
1396.36	-0.0339759
1397.27	-0.0339323
1398.18	-0.0338888
1399.09	-0.0338454
1400	-0.0338021
1400.91	-0.0337588
1401.82	-0.0337155
1402.73	-0.0336724
1403.64	-0.0336293
1404.55	-0.0335863
1405.45	-0.0335433
1406.36	-0.0335004
1407.27	-0.0334576
1408.18	-0.0334148
1409.09	-0.0333721
1410	-0.0333295
1410.91	-0.0332869
1411.82	-0.0332444
1412.73	-0.033202
1413.64	-0.0331596
1414.55	-0.0331173
1415.45	-0.033075
1416.36	-0.0330328
1417.27	-0.0329907
1418.18	-0.0329487
1419.09	-0.0329067
1420	-0.0328647
1420.91	-0.0328229
1421.82	-0.0327811
1422.73	-0.0327393
1423.64	-0.0326977
1424.55	-0.032656
1425.45	-0.0326145
1426.36	-0.032573
1427.27	-0.0325316
1428.18	-0.0324902
1429.09	-0.0324489
1430	-0.0324077
1430.91	-0.0323665
1431.82	-0.0323254
1432.73	-0.0322843
1433.64	-0.0322433
1434.55	-0.0322024
1435.45	-0.0321615
1436.36	-0.0321207
1437.27	-0.03208
1438.18	-0.0320393
1439.09	-0.0319986
1440	-0.0319581
1440.91	-0.0319176
1441.82	-0.0318771
1442.73	-0.0318367
1443.64	-0.0317964
1444.55	-0.0317561
1445.45	-0.0317159
1446.36	-0.0316758
1447.27	-0.0316357
1448.18	-0.0315957
1449.09	-0.0315557
1450	-0.0315158
1450.91	-0.0314759
1451.82	-0.0314361
1452.73	-0.0313964
1453.64	-0.0313567
1454.55	-0.0313171
1455.45	-0.0312775
1456.36	-0.031238
1457.27	-0.0311986
1458.18	-0.0311592
1459.09	-0.0311199
1460	-0.0310806
1460.91	-0.0310414
1461.82	-0.0310023
1462.73	-0.0309632
1463.64	-0.0309241
1464.55	-0.0308851
1465.45	-0.0308462
1466.36	-0.0308074
1467.27	-0.0307685
1468.18	-0.0307298
1469.09	-0.0306911
1470	-0.0306524
1470.91	-0.0306139
1471.82	-0.0305753
1472.73	-0.0305369
1473.64	-0.0304984
1474.55	-0.0304601
1475.45	-0.0304218
1476.36	-0.0303835
1477.27	-0.0303453
1478.18	-0.0303072
1479.09	-0.0302691
1480	-0.0302311
1480.91	-0.0301931
1481.82	-0.0301552
1482.73	-0.0301173
1483.64	-0.0300795
1484.55	-0.0300418
1485.45	-0.0300041
1486.36	-0.0299664
1487.27	-0.0299288
1488.18	-0.0298913
1489.09	-0.0298538
1490	-0.0298164
1490.91	-0.029779
1491.82	-0.0297417
1492.73	-0.0297044
1493.64	-0.0296672
1494.55	-0.0296301
1495.45	-0.0295929
1496.36	-0.0295559
1497.27	-0.0295189
1498.18	-0.0294819
1499.09	-0.029445
1500	-0.0294082
1500.91	-0.0293714
1501.82	-0.0293347
1502.73	-0.029298
1503.64	-0.0292614
1504.55	-0.0292248
1505.45	-0.0291882
1506.36	-0.0291518
1507.27	-0.0291153
1508.18	-0.029079
1509.09	-0.0290427
1510	-0.0290064
1510.91	-0.0289702
1511.82	-0.028934
1512.73	-0.0288979
1513.64	-0.0288618
1514.55	-0.0288258
1515.45	-0.0287898
1516.36	-0.0287539
1517.27	-0.0287181
1518.18	-0.0286822
1519.09	-0.0286465
1520	-0.0286108
1520.91	-0.0285751
1521.82	-0.0285395
1522.73	-0.0285039
1523.64	-0.0284684
1524.55	-0.028433
1525.45	-0.0283976
1526.36	-0.0283622
1527.27	-0.0283269
1528.18	-0.0282916
1529.09	-0.0282564
1530	-0.0282213
1530.91	-0.0281861
1531.82	-0.0281511
1532.73	-0.0281161
1533.64	-0.0280811
1534.55	-0.0280462
1535.45	-0.0280113
1536.36	-0.0279765
1537.27	-0.0279417
1538.18	-0.027907
1539.09	-0.0278723
1540	-0.0278377
1540.91	-0.0278031
1541.82	-0.0277686
1542.73	-0.0277341
1543.64	-0.0276996
1544.55	-0.0276652
1545.45	-0.0276309
1546.36	-0.0275966
1547.27	-0.0275624
1548.18	-0.0275282
1549.09	-0.027494
1550	-0.0274599
1550.91	-0.0274258
1551.82	-0.0273918
1552.73	-0.0273579
1553.64	-0.0273239
1554.55	-0.0272901
1555.45	-0.0272563
1556.36	-0.0272225
1557.27	-0.0271887
1558.18	-0.0271551
1559.09	-0.0271214
1560	-0.0270878
1560.91	-0.0270543
1561.82	-0.0270208
1562.73	-0.0269873
1563.64	-0.0269539
1564.55	-0.0269205
1565.45	-0.0268872
1566.36	-0.0268539
1567.27	-0.0268207
1568.18	-0.0267875
1569.09	-0.0267544
1570	-0.0267213
1570.91	-0.0266882
1571.82	-0.0266552
1572.73	-0.0266223
1573.64	-0.0265894
1574.55	-0.0265565
1575.45	-0.0265237
1576.36	-0.0264909
1577.27	-0.0264581
1578.18	-0.0264254
1579.09	-0.0263928
1580	-0.0263602
1580.91	-0.0263276
1581.82	-0.0262951
1582.73	-0.0262626
1583.64	-0.0262302
1584.55	-0.0261978
1585.45	-0.0261655
1586.36	-0.0261332
1587.27	-0.0261009
1588.18	-0.0260687
1589.09	-0.0260365
1590	-0.0260044
1590.91	-0.0259723
1591.82	-0.0259403
1592.73	-0.0259083
1593.64	-0.0258763
1594.55	-0.0258444
1595.45	-0.0258125
1596.36	-0.0257807
1597.27	-0.0257489
1598.18	-0.0257172
1599.09	-0.0256855
1600	-0.0256538
1600.91	-0.0256222
1601.82	-0.0255906
1602.73	-0.0255591
1603.64	-0.0255276
1604.55	-0.0254962
1605.45	-0.0254647
1606.36	-0.0254334
1607.27	-0.025402
1608.18	-0.0253708
1609.09	-0.0253395
1610	-0.0253083
1610.91	-0.0252772
1611.82	-0.025246
1612.73	-0.025215
1613.64	-0.0251839
1614.55	-0.0251529
1615.45	-0.025122
1616.36	-0.025091
1617.27	-0.0250602
1618.18	-0.0250293
1619.09	-0.0249985
1620	-0.0249678
1620.91	-0.0249371
1621.82	-0.0249064
1622.73	-0.0248758
1623.64	-0.0248452
1624.55	-0.0248146
1625.45	-0.0247841
1626.36	-0.0247536
1627.27	-0.0247232
1628.18	-0.0246928
1629.09	-0.0246624
1630	-0.0246321
1630.91	-0.0246018
1631.82	-0.0245716
1632.73	-0.0245414
1633.64	-0.0245112
1634.55	-0.0244811
1635.45	-0.024451
1636.36	-0.024421
1637.27	-0.024391
1638.18	-0.024361
1639.09	-0.0243311
1640	-0.0243012
1640.91	-0.0242714
1641.82	-0.0242415
1642.73	-0.0242118
1643.64	-0.024182
1644.55	-0.0241523
1645.45	-0.0241227
1646.36	-0.0240931
1647.27	-0.0240635
1648.18	-0.0240339
1649.09	-0.0240044
1650	-0.023975
1650.91	-0.0239455
1651.82	-0.0239161
1652.73	-0.0238868
1653.64	-0.0238575
1654.55	-0.0238282
1655.45	-0.0237989
1656.36	-0.0237697
1657.27	-0.0237405
1658.18	-0.0237114
1659.09	-0.0236823
1660	-0.0236533
1660.91	-0.0236242
1661.82	-0.0235963
1662.73	-0.0235674
1663.64	-0.0235385
1664.55	-0.0235096
1665.45	-0.0234808
1666.36	-0.023452
1667.27	-0.0234232
1668.18	-0.0233945
1669.09	-0.0233658
1670	-0.0233371
1670.91	-0.0233085
1671.82	-0.0232799
1672.73	-0.0232513
1673.64	-0.0232228
1674.55	-0.0231944
1675.45	-0.0231659
1676.36	-0.0231375
1677.27	-0.0231091
1678.18	-0.0230808
1679.09	-0.0230525
1680	-0.0230242
1680.91	-0.022996
1681.82	-0.0229678
1682.73	-0.0229396
1683.64	-0.0229115
1684.55	-0.0228834
1685.45	-0.0228554
1686.36	-0.0228273
1687.27	-0.0227994
1688.18	-0.0227714
1689.09	-0.0227435
1690	-0.0227156
1690.91	-0.0226878
1691.82	-0.0226599
1692.73	-0.0226322
1693.64	-0.0226044
1694.55	-0.0225767
1695.45	-0.022549
1696.36	-0.0225214
1697.27	-0.0224938
1698.18	-0.0224662
1699.09	-0.0224387
1700	-0.0224112
1700.91	-0.0223837
1701.82	-0.0223563
1702.73	-0.0223288
1703.64	-0.0223015
1704.55	-0.0222741
1705.45	-0.0222468
1706.36	-0.0222196
1707.27	-0.0221923
1708.18	-0.0221651
1709.09	-0.0221379
1710	-0.0221108
1710.91	-0.0220837
1711.82	-0.0220566
1712.73	-0.0220296
1713.64	-0.0220026
1714.55	-0.0219756
1715.45	-0.0219487
1716.36	-0.0219218
1717.27	-0.0218949
1718.18	-0.021868
1719.09	-0.0218412
1720	-0.0218144
1720.91	-0.0217877
1721.82	-0.021761
1722.73	-0.0217343
1723.64	-0.0217077
1724.55	-0.021681
1725.45	-0.0216544
1726.36	-0.0216279
1727.27	-0.0216014
1728.18	-0.0215749
1729.09	-0.0215484
1730	-0.021522
1730.91	-0.0214956
1731.82	-0.0214692
1732.73	-0.0214429
1733.64	-0.0214166
1734.55	-0.0213903
1735.45	-0.0213641
1736.36	-0.0213379
1737.27	-0.0213117
1738.18	-0.0212856
1739.09	-0.0212595
1740	-0.0212334
1740.91	-0.0212073
1741.82	-0.0211813
1742.73	-0.0211553
1743.64	-0.0211294
1744.55	-0.0211034
1745.45	-0.0210775
1746.36	-0.0210517
1747.27	-0.0210258
1748.18	-0.021
1749.09	-0.0209742
1750	-0.0209485
1750.91	-0.0209228
1751.82	-0.0208971
1752.73	-0.0208714
1753.64	-0.0208458
1754.55	-0.0208202
1755.45	-0.0207947
1756.36	-0.0207691
1757.27	-0.0207436
1758.18	-0.0207181
1759.09	-0.0206927
1760	-0.0206673
1760.91	-0.0206419
1761.82	-0.0206165
1762.73	-0.0205912
1763.64	-0.0205659
1764.55	-0.0205407
1765.45	-0.0205154
1766.36	-0.0204902
1767.27	-0.020465
1768.18	-0.0204399
1769.09	-0.0204148
1770	-0.0203897
1770.91	-0.0203646
1771.82	-0.0203396
1772.73	-0.0203146
1773.64	-0.0202896
1774.55	-0.0202646
1775.45	-0.0202397
1776.36	-0.0202148
1777.27	-0.02019
1778.18	-0.0201651
1779.09	-0.0201403
1780	-0.0201156
1780.91	-0.0200908
1781.82	-0.0200661
1782.73	-0.0200414
1783.64	-0.0200167
1784.55	-0.0199921
1785.45	-0.0199675
1786.36	-0.0199429
1787.27	-0.0199184
1788.18	-0.0198938
1789.09	-0.0198693
1790	-0.0198449
1790.91	-0.0198204
1791.82	-0.019796
1792.73	-0.0197716
1793.64	-0.0197473
1794.55	-0.019723
1795.45	-0.0196987
1796.36	-0.0196744
1797.27	-0.0196501
1798.18	-0.0196259
1799.09	-0.0196017
1800	-0.0195776
1800.91	-0.0195534
1801.82	-0.0195293
1802.73	-0.0195052
1803.64	-0.0194812
1804.55	-0.0194572
1805.45	-0.0194332
1806.36	-0.0194092
1807.27	-0.0193852
1808.18	-0.0193613
1809.09	-0.0193374
1810	-0.0193136
1810.91	-0.0192897
1811.82	-0.0192659
1812.73	-0.0192421
1813.64	-0.0192183
1814.55	-0.0191946
1815.45	-0.0191709
1816.36	-0.0191472
1817.27	-0.0191236
1818.18	-0.0190999
1819.09	-0.0190763
1820	-0.0190528
1820.91	-0.0190292
1821.82	-0.0190057
1822.73	-0.0189822
1823.64	-0.0189587
1824.55	-0.0189353
1825.45	-0.0189118
1826.36	-0.0188884
1827.27	-0.0188651
1828.18	-0.0188417
1829.09	-0.0188184
1830	-0.0187951
1830.91	-0.0187718
1831.82	-0.0187486
1832.73	-0.0187254
1833.64	-0.0187022
1834.55	-0.018679
1835.45	-0.0186559
1836.36	-0.0186328
1837.27	-0.0186097
1838.18	-0.0185866
1839.09	-0.0185636
1840	-0.0185406
1840.91	-0.0185176
1841.82	-0.0184946
1842.73	-0.0184717
1843.64	-0.0184487
1844.55	-0.0184259
1845.45	-0.018403
1846.36	-0.0183801
1847.27	-0.0183573
1848.18	-0.0183345
1849.09	-0.0183118
1850	-0.018289
1850.91	-0.0182663
1851.82	-0.0182436
1852.73	-0.0182209
1853.64	-0.0181983
1854.55	-0.0181757
1855.45	-0.0181531
1856.36	-0.0181305
1857.27	-0.0181079
1858.18	-0.0180854
1859.09	-0.0180629
1860	-0.0180404
1860.91	-0.018018
1861.82	-0.0179956
1862.73	-0.0179731
1863.64	-0.0179508
1864.55	-0.0179284
1865.45	-0.0179061
1866.36	-0.0178838
1867.27	-0.0178615
1868.18	-0.0178392
1869.09	-0.017817
1870	-0.0177947
1870.91	-0.0177726
1871.82	-0.0177504
1872.73	-0.0177282
1873.64	-0.0177061
1874.55	-0.017684
1875.45	-0.0176619
1876.36	-0.0176399
1877.27	-0.0176178
1878.18	-0.0175958
1879.09	-0.0175738
1880	-0.0175519
1880.91	-0.0175299
1881.82	-0.017508
1882.73	-0.0174861
1883.64	-0.0174643
1884.55	-0.0174424
1885.45	-0.0174206
1886.36	-0.0173988
1887.27	-0.017377
1888.18	-0.0173552
1889.09	-0.0173335
1890	-0.0173118
1890.91	-0.0172901
1891.82	-0.0172684
1892.73	-0.0172468
1893.64	-0.0172252
1894.55	-0.0172036
1895.45	-0.017182
1896.36	-0.0171604
1897.27	-0.0171389
1898.18	-0.0171174
1899.09	-0.0170959
1900	-0.0170744
1900.91	-0.017053
1901.82	-0.0170315
1902.73	-0.0170101
1903.64	-0.0169888
1904.55	-0.0169674
1905.45	-0.0169461
1906.36	-0.0169247
1907.27	-0.0169034
1908.18	-0.0168822
1909.09	-0.0168609
1910	-0.0168397
1910.91	-0.0168185
1911.82	-0.0167973
1912.73	-0.0167761
1913.64	-0.016755
1914.55	-0.0167338
1915.45	-0.0167127
1916.36	-0.0166917
1917.27	-0.0166706
1918.18	-0.0166496
1919.09	-0.0166285
1920	-0.0166075
1920.91	-0.0165866
1921.82	-0.0165656
1922.73	-0.0165447
1923.64	-0.0165238
1924.55	-0.0165029
1925.45	-0.016482
1926.36	-0.0164611
1927.27	-0.0164403
1928.18	-0.0164195
1929.09	-0.0163987
1930	-0.0163779
1930.91	-0.0163578
1931.82	-0.016337
1932.73	-0.0163163
1933.64	-0.0162956
1934.55	-0.016275
1935.45	-0.0162543
1936.36	-0.0162337
1937.27	-0.0162131
1938.18	-0.0161925
1939.09	-0.0161719
1940	-0.0161514
1940.91	-0.0161309
1941.82	-0.0161104
1942.73	-0.0160899
1943.64	-0.0160694
1944.55	-0.016049
1945.45	-0.0160285
1946.36	-0.0160081
1947.27	-0.0159877
1948.18	-0.0159674
1949.09	-0.015947
1950	-0.0159267
1950.91	-0.0159064
1951.82	-0.0158861
1952.73	-0.0158658
1953.64	-0.0158456
1954.55	-0.0158253
1955.45	-0.0158051
1956.36	-0.0157849
1957.27	-0.0157648
1958.18	-0.0157446
1959.09	-0.0157245
1960	-0.0157044
1960.91	-0.0156843
1961.82	-0.0156642
1962.73	-0.0156441
1963.64	-0.0156241
1964.55	-0.0156041
1965.45	-0.0155841
1966.36	-0.0155641
1967.27	-0.0155441
1968.18	-0.0155242
1969.09	-0.0155043
1970	-0.0154844
1970.91	-0.0154645
1971.82	-0.0154446
1972.73	-0.0154248
1973.64	-0.0154049
1974.55	-0.0153851
1975.45	-0.0153653
1976.36	-0.0153455
1977.27	-0.0153258
1978.18	-0.0153061
1979.09	-0.0152863
1980	-0.0152666
1980.91	-0.0152469
1981.82	-0.0152273
1982.73	-0.0152076
1983.64	-0.015188
1984.55	-0.0151684
1985.45	-0.0151488
1986.36	-0.0151292
1987.27	-0.0151097
1988.18	-0.0150901
1989.09	-0.0150706
1990	-0.0150511
1990.91	-0.0150316
1991.82	-0.0150122
1992.73	-0.0149927
1993.64	-0.0149733
1994.55	-0.0149539
1995.45	-0.0149345
1996.36	-0.0149151
1997.27	-0.0148957
1998.18	-0.0148764
1999.09	-0.0148571
2000	-0.0148378
2000.91	-0.0148185
2001.82	-0.0147992
2002.73	-0.01478
2003.64	-0.0147607
2004.55	-0.0147415
2005.45	-0.0147223
2006.36	-0.0147031
2007.27	-0.0146839
2008.18	-0.0146648
2009.09	-0.0146457
2010	-0.0146265
2010.91	-0.0146074
2011.82	-0.0145884
2012.73	-0.0145693
2013.64	-0.0145502
2014.55	-0.0145312
2015.45	-0.0145122
2016.36	-0.0144932
2017.27	-0.0144742
2018.18	-0.0144553
2019.09	-0.0144363
2020	-0.0144174
2020.91	-0.0143985
2021.82	-0.0143796
2022.73	-0.0143607
2023.64	-0.0143418
2024.55	-0.014323
2025.45	-0.0143042
2026.36	-0.0142853
2027.27	-0.0142665
2028.18	-0.0142478
2029.09	-0.014229
2030	-0.0142102
2030.91	-0.0141915
2031.82	-0.0141728
2032.73	-0.0141541
2033.64	-0.0141354
2034.55	-0.0141167
2035.45	-0.0140981
2036.36	-0.0140795
2037.27	-0.0140608
2038.18	-0.0140422
2039.09	-0.0140237
2040	-0.0140051
2040.91	-0.0139865
2041.82	-0.013968
2042.73	-0.0139495
2043.64	-0.013931
2044.55	-0.0139125
2045.45	-0.013894
2046.36	-0.0138755
2047.27	-0.0138571
2048.18	-0.0138387
2049.09	-0.0138203
2050	-0.0138019
2050.91	-0.0137835
2051.82	-0.0137651
2052.73	-0.0137468
2053.64	-0.0137284
2054.55	-0.0137101
2055.45	-0.0136918
2056.36	-0.0136735
2057.27	-0.0136552
2058.18	-0.013637
2059.09	-0.0136187
2060	-0.0136005
2060.91	-0.0135823
2061.82	-0.0135641
2062.73	-0.0135459
2063.64	-0.0135278
2064.55	-0.0135096
2065.45	-0.0134915
2066.36	-0.0134733
2067.27	-0.0134552
2068.18	-0.0134371
2069.09	-0.0134191
2070	-0.013401
2070.91	-0.013383
2071.82	-0.0133649
2072.73	-0.0133469
2073.64	-0.0133289
2074.55	-0.0133109
2075.45	-0.0132929
2076.36	-0.013275
2077.27	-0.013257
2078.18	-0.0132391
2079.09	-0.0132212
2080	-0.0132033
2080.91	-0.0131854
2081.82	-0.0131675
2082.73	-0.0131497
2083.64	-0.0131318
2084.55	-0.013114
2085.45	-0.0130962
2086.36	-0.0130784
2087.27	-0.0130606
2088.18	-0.0130428
2089.09	-0.0130251
2090	-0.0130073
2090.91	-0.0129896
2091.82	-0.0129719
2092.73	-0.0129542
2093.64	-0.0129365
2094.55	-0.0129188
2095.45	-0.0129012
2096.36	-0.0128835
2097.27	-0.0128659
2098.18	-0.0128483
2099.09	-0.0128307
2100	-0.0128131
2100.91	-0.0127955
2101.82	-0.0127779
2102.73	-0.0127604
2103.64	-0.0127429
2104.55	-0.0127253
2105.45	-0.0127078
2106.36	-0.0126903
2107.27	-0.0126728
2108.18	-0.0126554
2109.09	-0.0126379
2110	-0.0126205
2110.91	-0.0126031
2111.82	-0.0125856
2112.73	-0.0125682
2113.64	-0.0125509
2114.55	-0.0125335
2115.45	-0.0125161
2116.36	-0.0124988
2117.27	-0.0124814
2118.18	-0.0124641
2119.09	-0.0124468
2120	-0.0124295
2120.91	-0.0124122
2121.82	-0.012395
2122.73	-0.0123777
2123.64	-0.0123605
2124.55	-0.0123432
2125.45	-0.012326
2126.36	-0.0123088
2127.27	-0.0122916
2128.18	-0.0122744
2129.09	-0.0122573
2130	-0.0122411
2130.91	-0.012224
2131.82	-0.0122068
2132.73	-0.0121897
2133.64	-0.0121726
2134.55	-0.0121555
2135.45	-0.0121384
2136.36	-0.0121214
2137.27	-0.0121043
2138.18	-0.0120873
2139.09	-0.0120703
2140	-0.0120533
2140.91	-0.0120363
2141.82	-0.0120193
2142.73	-0.0120023
2143.64	-0.0119853
2144.55	-0.0119684
2145.45	-0.0119514
2146.36	-0.0119345
2147.27	-0.0119176
2148.18	-0.0119007
2149.09	-0.0118838
2150	-0.0118669
2150.91	-0.01185
2151.82	-0.0118332
2152.73	-0.0118163
2153.64	-0.0117995
2154.55	-0.0117827
2155.45	-0.0117659
2156.36	-0.0117491
2157.27	-0.0117323
2158.18	-0.0117155
2159.09	-0.0116988
2160	-0.011682
2160.91	-0.0116653
2161.82	-0.0116486
2162.73	-0.0116318
2163.64	-0.0116151
2164.55	-0.0115984
2165.45	-0.0115818
2166.36	-0.0115651
2167.27	-0.0115484
2168.18	-0.0115318
2169.09	-0.0115152
2170	-0.0114985
2170.91	-0.0114819
2171.82	-0.0114653
2172.73	-0.0114487
2173.64	-0.0114322
2174.55	-0.0114156
2175.45	-0.011399
2176.36	-0.0113825
2177.27	-0.011366
2178.18	-0.0113494
2179.09	-0.0113329
2180	-0.0113164
2180.91	-0.0113
2181.82	-0.0112835
2182.73	-0.011267
2183.64	-0.0112506
2184.55	-0.0112341
2185.45	-0.0112177
2186.36	-0.0112013
2187.27	-0.0111848
2188.18	-0.0111684
2189.09	-0.0111521
2190	-0.0111357
2190.91	-0.0111193
2191.82	-0.011103
2192.73	-0.0110866
2193.64	-0.0110703
2194.55	-0.0110539
2195.45	-0.0110376
2196.36	-0.0110213
2197.27	-0.0110044
2198.18	-0.0109881
2199.09	-0.0109718
2200	-0.0109555
2200.91	-0.0109393
2201.82	-0.0109231
2202.73	-0.0109068
2203.64	-0.0108906
2204.55	-0.0108744
2205.45	-0.0108582
2206.36	-0.010842
2207.27	-0.0108258
2208.18	-0.0108097
2209.09	-0.0107935
2210	-0.0107773
2210.91	-0.0107612
2211.82	-0.0107451
2212.73	-0.010729
2213.64	-0.0107128
2214.55	-0.0106967
2215.45	-0.0106807
2216.36	-0.0106646
2217.27	-0.0106485
2218.18	-0.0106325
2219.09	-0.0106164
2220	-0.0106004
2220.91	-0.0105843
2221.82	-0.0105683
2222.73	-0.0105523
2223.64	-0.0105363
2224.55	-0.0105203
2225.45	-0.0105043
2226.36	-0.0104883
2227.27	-0.0104724
2228.18	-0.0104564
2229.09	-0.0104405
2230	-0.0104246
2230.91	-0.0104086
2231.82	-0.0103927
2232.73	-0.0103768
2233.64	-0.0103609
2234.55	-0.010345
2235.45	-0.0103291
2236.36	-0.0103133
2237.27	-0.0102974
2238.18	-0.0102816
2239.09	-0.0102657
2240	-0.0102499
2240.91	-0.0102341
2241.82	-0.0102182
2242.73	-0.0102024
2243.64	-0.0101866
2244.55	-0.0101709
2245.45	-0.0101551
2246.36	-0.0101393
2247.27	-0.0101235
2248.18	-0.0101078
2249.09	-0.0100921
2250	-0.0100763
2250.91	-0.0100606
2251.82	-0.0100449
2252.73	-0.0100292
2253.64	-0.0100135
2254.55	-0.00999778
2255.45	-0.0099821
2256.36	-0.00996643
2257.27	-0.00995076
2258.18	-0.0099351
2259.09	-0.00991946
2260	-0.00990382
2260.91	-0.00988819
2261.82	-0.00987257
2262.73	-0.00985695
2263.64	-0.00984135
2264.55	-0.00982575
2265.45	-0.00981016
2266.36	-0.00979458
2267.27	-0.00977901
2268.18	-0.00976344
2269.09	-0.00974789
2270	-0.00973234
2270.91	-0.0097168
2271.82	-0.00970127
2272.73	-0.00968575
2273.64	-0.00967023
2274.55	-0.00965472
2275.45	-0.00963922
2276.36	-0.00962373
2277.27	-0.00960825
2278.18	-0.00959277
2279.09	-0.00957731
2280	-0.00956185
2280.91	-0.0095464
2281.82	-0.00953226
2282.73	-0.00951682
2283.64	-0.00950139
2284.55	-0.00948597
2285.45	-0.00947056
2286.36	-0.00945515
2287.27	-0.00943975
2288.18	-0.00942436
2289.09	-0.00940898
2290	-0.0093936
2290.91	-0.00937823
2291.82	-0.00936287
2292.73	-0.00934752
2293.64	-0.00933217
2294.55	-0.00931683
2295.45	-0.0093015
2296.36	-0.00928618
2297.27	-0.00927086
2298.18	-0.00925555
2299.09	-0.00924025
2300	-0.00922495
2300.91	-0.00920967
2301.82	-0.00919439
2302.73	-0.00917911
2303.64	-0.00916385
2304.55	-0.00914859
2305.45	-0.00913333
2306.36	-0.00911809
2307.27	-0.00910285
2308.18	-0.00908762
2309.09	-0.00907239
2310	-0.00905718
2310.91	-0.00904197
2311.82	-0.00902676
2312.73	-0.00901157
2313.64	-0.00899638
2314.55	-0.00898119
2315.45	-0.00896602
2316.36	-0.00895085
2317.27	-0.00893568
2318.18	-0.00892053
2319.09	-0.00890538
2320	-0.00889023
2320.91	-0.0088751
2321.82	-0.00886015
2322.73	-0.00884503
2323.64	-0.00882991
2324.55	-0.0088148
2325.45	-0.0087997
2326.36	-0.0087846
2327.27	-0.00876951
2328.18	-0.00875442
2329.09	-0.00873809
2330	-0.00872302
2330.91	-0.00870795
2331.82	-0.00869289
2332.73	-0.00867784
2333.64	-0.00866279
2334.55	-0.00864775
2335.45	-0.00863272
2336.36	-0.00861769
2337.27	-0.00860266
2338.18	-0.00858765
2339.09	-0.00857264
2340	-0.00855763
2340.91	-0.00854263
2341.82	-0.00852764
2342.73	-0.00851265
2343.64	-0.00849767
2344.55	-0.0084827
2345.45	-0.00846773
2346.36	-0.00845276
2347.27	-0.0084378
2348.18	-0.00842285
2349.09	-0.0084079
2350	-0.00839296
2350.91	-0.00837802
2351.82	-0.00836309
2352.73	-0.00834817
2353.64	-0.00833325
2354.55	-0.00831834
2355.45	-0.00830343
2356.36	-0.00828852
2357.27	-0.00827363
2358.18	-0.00825873
2359.09	-0.00824385
2360	-0.00822897
2360.91	-0.00821409
2361.82	-0.00819922
2362.73	-0.00818435
2363.64	-0.00816949
2364.55	-0.00815463
2365.45	-0.00813978
2366.36	-0.00812494
2367.27	-0.0081101
2368.18	-0.00809526
2369.09	-0.00808043
2370	-0.0080656
2370.91	-0.00805078
2371.82	-0.00803597
2372.73	-0.00802116
2373.64	-0.00800635
2374.55	-0.00799155
2375.45	-0.00797675
2376.36	-0.00796196
2377.27	-0.00794717
2378.18	-0.00793239
2379.09	-0.00791761
2380	-0.00790284
2380.91	-0.00788807
2381.82	-0.00787331
2382.73	-0.00785855
2383.64	-0.00784379
2384.55	-0.00782904
2385.45	-0.00781429
2386.36	-0.00779955
2387.27	-0.00778482
2388.18	-0.00777008
2389.09	-0.00775535
2390	-0.00774063
2390.91	-0.00772591
2391.82	-0.00771119
2392.73	-0.00769648
2393.64	-0.00768177
2394.55	-0.00766707
2395.45	-0.00765237
2396.36	-0.00763767
2397.27	-0.00762298
2398.18	-0.00760829
2399.09	-0.00759361
2400	-0.00757893
2400.91	-0.00756426
2401.82	-0.00754958
2402.73	-0.00753609
2403.64	-0.00752143
2404.55	-0.00750677
2405.45	-0.00749211
2406.36	-0.00747746
2407.27	-0.00746281
2408.18	-0.00744816
2409.09	-0.00743352
2410	-0.00741888
2410.91	-0.00740424
2411.82	-0.00738961
2412.73	-0.00737498
2413.64	-0.00736036
2414.55	-0.00734573
2415.45	-0.00733112
2416.36	-0.0073165
2417.27	-0.00730189
2418.18	-0.00728728
2419.09	-0.00727268
2420	-0.00725807
2420.91	-0.00724347
2421.82	-0.00722888
2422.73	-0.00721429
2423.64	-0.0071997
2424.55	-0.00718511
2425.45	-0.00717053
2426.36	-0.00715595
2427.27	-0.00714137
2428.18	-0.0071268
2429.09	-0.00711222
2430	-0.00709766
2430.91	-0.00708309
2431.82	-0.00706853
2432.73	-0.00705397
2433.64	-0.00703941
2434.55	-0.00702486
2435.45	-0.0070103
2436.36	-0.00699575
2437.27	-0.00698121
2438.18	-0.00696666
2439.09	-0.00695212
2440	-0.00693758
2440.91	-0.00692305
2441.82	-0.00690852
2442.73	-0.00689398
2443.64	-0.00687945
2444.55	-0.00686493
2445.45	-0.0068504
2446.36	-0.00683588
2447.27	-0.00682136
2448.18	-0.00680684
2449.09	-0.00679233
2450	-0.00677781
2450.91	-0.0067633
2451.82	-0.00674879
2452.73	-0.00673429
2453.64	-0.00671978
2454.55	-0.00670528
2455.45	-0.00669078
2456.36	-0.00667628
2457.27	-0.00666178
2458.18	-0.00664728
2459.09	-0.00663279
2460	-0.0066183
2460.91	-0.00660381
2461.82	-0.00658932
2462.73	-0.00657483
2463.64	-0.00656035
2464.55	-0.00654586
2465.45	-0.00653138
2466.36	-0.0065169
2467.27	-0.00650242
2468.18	-0.00648794
2469.09	-0.00647347
2470	-0.00645899
2470.91	-0.00644452
2471.82	-0.00643004
2472.73	-0.00641557
2473.64	-0.0064011
2474.55	-0.00638663
2475.45	-0.00637217
2476.36	-0.0063577
2477.27	-0.00634324
2478.18	-0.00632877
2479.09	-0.00631431
2480	-0.00629985
2480.91	-0.00628539
2481.82	-0.00627093
2482.73	-0.00625647
2483.64	-0.00624201
2484.55	-0.00622755
2485.45	-0.00621309
2486.36	-0.00619864
2487.27	-0.00618418
2488.18	-0.00616973
2489.09	-0.00615527
2490	-0.00614082
2490.91	-0.00612637
2491.82	-0.00611191
2492.73	-0.00609746
2493.64	-0.00608301
2494.55	-0.00606856
2495.45	-0.00605411
2496.36	-0.00603966
2497.27	-0.00602521
2498.18	-0.00601076
2499.09	-0.00599631
2500	-0.00598186
2500.91	-0.00596741
2501.82	-0.00595296
2502.73	-0.00593851
2503.64	-0.00592406
2504.55	-0.00590961
2505.45	-0.00589516
2506.36	-0.00588071
2507.27	-0.00586626
2508.18	-0.00585181
2509.09	-0.00583736
2510	-0.00582291
2510.91	-0.00580846
2511.82	-0.00579401
2512.73	-0.00577956
2513.64	-0.00576511
2514.55	-0.00575066
2515.45	-0.00573621
2516.36	-0.00572175
2517.27	-0.0057073
2518.18	-0.00569285
2519.09	-0.00567839
2520	-0.00566394
2520.91	-0.00564948
2521.82	-0.00563502
2522.73	-0.00562057
2523.64	-0.00560611
2524.55	-0.00559165
2525.45	-0.00557719
2526.36	-0.00556273
2527.27	-0.00554827
2528.18	-0.0055338
2529.09	-0.00551934
2530	-0.00550487
2530.91	-0.00549041
2531.82	-0.00547594
2532.73	-0.00546147
2533.64	-0.005447
2534.55	-0.00543253
2535.45	-0.00541806
2536.36	-0.00540358
2537.27	-0.00538911
2538.18	-0.00537463
2539.09	-0.00536015
2540	-0.00534567
2540.91	-0.00533119
2541.82	-0.0053167
2542.73	-0.00530222
2543.64	-0.00528773
2544.55	-0.00527324
2545.45	-0.00525875
2546.36	-0.00524426
2547.27	-0.00522977
2548.18	-0.00521527
2549.09	-0.00520077
2550	-0.00518627
2550.91	-0.00517177
2551.82	-0.00515726
2552.73	-0.00514276
2553.64	-0.00512825
2554.55	-0.00511374
2555.45	-0.00509922
2556.36	-0.00508471
2557.27	-0.00507019
2558.18	-0.00505567
2559.09	-0.00504114
2560	-0.00502662
2560.91	-0.00501209
2561.82	-0.00499756
2562.73	-0.00498303
2563.64	-0.00496849
2564.55	-0.00495395
2565.45	-0.00493941
2566.36	-0.00492486
2567.27	-0.00491032
2568.18	-0.00489576
2569.09	-0.00488121
2570	-0.00482695
2570.91	-0.00485209
2571.82	-0.00483753
2572.73	-0.00482297
2573.64	-0.0048084
2574.55	-0.00479382
2575.45	-0.00477925
2576.36	-0.00476467
2577.27	-0.00475009
2578.18	-0.0047355
2579.09	-0.00472091
2580	-0.00470632
2580.91	-0.00469172
2581.82	-0.00467712
2582.73	-0.00466251
2583.64	-0.00464791
2584.55	-0.00463329
2585.45	-0.00461868
2586.36	-0.00460406
2587.27	-0.00458944
2588.18	-0.00457481
2589.09	-0.00456018
2590	-0.00454554
2590.91	-0.0045309
2591.82	-0.00451626
2592.73	-0.00450161
2593.64	-0.00448696
2594.55	-0.0044723
2595.45	-0.00445764
2596.36	-0.00444297
2597.27	-0.0044283
2598.18	-0.00441363
2599.09	-0.00439895
2600	-0.00438426
2600.91	-0.00436958
2601.82	-0.00435488
2602.73	-0.00434018
2603.64	-0.00432548
2604.55	-0.00431077
2605.45	-0.00429606
2606.36	-0.00428134
2607.27	-0.00426662
2608.18	-0.00425189
2609.09	-0.00423716
2610	-0.00422242
2610.91	-0.00420767
2611.82	-0.00419292
2612.73	-0.00417817
2613.64	-0.00416341
2614.55	-0.00414864
2615.45	-0.00413387
2616.36	-0.0041191
2617.27	-0.00410431
2618.18	-0.00408952
2619.09	-0.00407473
2620	-0.00405993
2620.91	-0.00404512
2621.82	-0.00403031
2622.73	-0.00401549
2623.64	-0.00400067
2624.55	-0.00398584
2625.45	-0.003971
2626.36	-0.00395616
2627.27	-0.00394131
2628.18	-0.00392646
2629.09	-0.00391159
2630	-0.00389673
2630.91	-0.00388185
2631.82	-0.00386697
2632.73	-0.00385208
2633.64	-0.00383719
2634.55	-0.00382229
2635.45	-0.00380738
2636.36	-0.00379246
2637.27	-0.00377754
2638.18	-0.00376261
2639.09	-0.00374768
2640	-0.00373273
2640.91	-0.00371778
2641.82	-0.00370282
2642.73	-0.00368786
2643.64	-0.00367289
2644.55	-0.00365791
2645.45	-0.00364292
2646.36	-0.00362792
2647.27	-0.00361292
2648.18	-0.00359791
2649.09	-0.00358289
2650	-0.00356787
2650.91	-0.00355283
2651.82	-0.00353779
2652.73	-0.00352274
2653.64	-0.00350768
2654.55	-0.00349262
2655.45	-0.00347754
2656.36	-0.00346246
2657.27	-0.00344737
2658.18	-0.00343227
2659.09	-0.00341716
2660	-0.00340204
2660.91	-0.00338692
2661.82	-0.00337179
2662.73	-0.00335664
2663.64	-0.00334149
2664.55	-0.00332633
2665.45	-0.00331116
2666.36	-0.00329598
2667.27	-0.0032808
2668.18	-0.0032656
2669.09	-0.00325039
2670	-0.00323518
2670.91	-0.00321995
2671.82	-0.00320472
2672.73	-0.00318948
2673.64	-0.00317441
2674.55	-0.00315915
2675.45	-0.00314387
2676.36	-0.00312859
2677.27	-0.0031133
2678.18	-0.003098
2679.09	-0.00308268
2680	-0.00306736
2680.91	-0.00305203
2681.82	-0.00303669
2682.73	-0.00302133
2683.64	-0.00300597
2684.55	-0.0029906
2685.45	-0.00297521
2686.36	-0.00295982
2687.27	-0.00294441
2688.18	-0.00292899
2689.09	-0.00291357
2690	-0.00289813
2690.91	-0.00288268
2691.82	-0.00286722
2692.73	-0.00285174
2693.64	-0.00283626
2694.55	-0.00282077
2695.45	-0.00280526
2696.36	-0.00278974
2697.27	-0.0027742
2698.18	-0.00275866
2699.09	-0.00274311
2700	-0.00272754
2700.91	-0.00271197
2701.82	-0.00269638
2702.73	-0.00268078
2703.64	-0.00266517
2704.55	-0.00264954
2705.45	-0.0026339
2706.36	-0.00261825
2707.27	-0.00260258
2708.18	-0.00258691
2709.09	-0.00257122
2710	-0.00255552
2710.91	-0.00253999
2711.82	-0.00252427
2712.73	-0.00250853
2713.64	-0.00249278
2714.55	-0.00247663
2715.45	-0.00246085
2716.36	-0.00244506
2717.27	-0.00242926
2718.18	-0.00241344
2719.09	-0.00239761
2720	-0.00238176
2720.91	-0.0023659
2721.82	-0.00234966
2722.73	-0.00233378
2723.64	-0.00231787
2724.55	-0.00230196
2725.45	-0.00228603
2726.36	-0.00227008
2727.27	-0.00225412
2728.18	-0.00223815
2729.09	-0.00222216
2730	-0.00220616
2730.91	-0.00219014
2731.82	-0.0021741
2732.73	-0.00215806
2733.64	-0.00214199
2734.55	-0.00212591
2735.45	-0.00210981
2736.36	-0.0020937
2737.27	-0.00207758
2738.18	-0.00206144
2739.09	-0.00204528
2740	-0.00202911
2740.91	-0.00201292
2741.82	-0.00199671
2742.73	-0.00198049
2743.64	-0.00196425
2744.55	-0.001948
2745.45	-0.00193173
2746.36	-0.00191544
2747.27	-0.00189914
2748.18	-0.00188282
2749.09	-0.00186648
2750	-0.00185013
2750.91	-0.00183375
2751.82	-0.00181736
2752.73	-0.00180112
2753.64	-0.0017847
2754.55	-0.00176826
2755.45	-0.0017518
2756.36	-0.00173532
2757.27	-0.00171883
2758.18	-0.00170231
2759.09	-0.00168578
2760	-0.00166923
2760.91	-0.00165271
2761.82	-0.00163612
2762.73	-0.00161952
2763.64	-0.00160291
2764.55	-0.00158626
2765.45	-0.0015696
2766.36	-0.00155292
2767.27	-0.00153626
2768.18	-0.00151954
2769.09	-0.0015028
2770	-0.00148604
2770.91	-0.00146926
2771.82	-0.00145247
2772.73	-0.00143565
2773.64	-0.00141881
2774.55	-0.00140195
2775.45	-0.00138507
2776.36	-0.00136817
2777.27	-0.00135125
2778.18	-0.00133431
2779.09	-0.00131734
2780	-0.00130027
2780.91	-0.00128327
2781.82	-0.00126624
2782.73	-0.00124919
2783.64	-0.00123212
2784.55	-0.00121503
2785.45	-0.00119792
2786.36	-0.00118078
2787.27	-0.00116362
2788.18	-0.00114644
2789.09	-0.00112924
2790	-0.00111202
2790.91	-0.00109477
2791.82	-0.00107757
2792.73	-0.00106028
2793.64	-0.00104296
2794.55	-0.00102562
2795.45	-0.00100825
2796.36	-0.000990868
2797.27	-0.000973456
2798.18	-0.000956021
2799.09	-0.000938562
2800	-0.00092099
2800.91	-0.000903482
2801.82	-0.00088595
2802.73	-0.000868393
2803.64	-0.000850811
2804.55	-0.000833283
2805.45	-0.000815651
2806.36	-0.000797993
2807.27	-0.00078031
2808.18	-0.000762601
2809.09	-0.000744913
2810	-0.000727153
2810.91	-0.000709366
2811.82	-0.000691553
2812.73	-0.000673713
2813.64	-0.000655847
2814.55	-0.000637954
2815.45	-0.000620034
2816.36	-0.000602086
2817.27	-0.000584112
2818.18	-0.000566109
2819.09	-0.000548079
2820	-0.000530021
2820.91	-0.000511935
2821.82	-0.000493822
2822.73	-0.000475679
2823.64	-0.000457507
2824.55	-0.000439307
2825.45	-0.000421061
2826.36	-0.000402803
2827.27	-0.000384515
2828.18	-0.000366199
2829.09	-0.000347852
2830	-0.000329474
2830.91	-0.000311067
2831.82	-0.00029263
2832.73	-0.000274161
2833.64	-0.000255663
2834.55	-0.000237133
2835.45	-0.000218572
2836.36	-0.00019998
2837.27	-0.000181356
2838.18	-0.000162712
2839.09	-0.000144025
2840	-0.000125305
2840.91	-0.000106546
2841.82	-8.77443e-05
2842.73	-6.89307e-05
2843.64	-5.00851e-05
2844.55	-3.12107e-05
2845.45	-1.22924e-05
2846.36	6.65944e-06
2847.27	2.56429e-05
2848.18	4.46699e-05
2849.09	6.3724e-05
2850	8.28209e-05
2850.91	0.000101927
2851.82	0.000121077
2852.73	0.00014027
2853.64	0.000159499
2854.55	0.000178776
2855.45	0.000198076
2856.36	0.000217413
2857.27	0.000236786
2858.18	0.000256196
2859.09	0.000275642
2860	0.000295126
2860.91	0.000314647
2861.82	0.000334206
2862.73	0.000353803
2863.64	0.000373438
2864.55	0.000393113
2865.45	0.000412825
2866.36	0.00043256
2867.27	0.000452351
2868.18	0.000472181
2869.09	0.000492052
2870	0.000511962
2870.91	0.000531912
2871.82	0.000551903
2872.73	0.000571935
2873.64	0.000592008
2874.55	0.000612122
2875.45	0.000632278
2876.36	0.000652476
2877.27	0.000672717
2878.18	0.000693
2879.09	0.000713326
2880	0.000733695
2880.91	0.000754107
2881.82	0.000774639
2882.73	0.000795139
2883.64	0.000815684
2884.55	0.000836274
2885.45	0.000856825
2886.36	0.000877505
2887.27	0.00089823
2888.18	0.000919002
2889.09	0.000939819
2890	0.000960684
2890.91	0.000981595
2891.82	0.00100261
2892.73	-0.00525649
2893.64	0.00104474
2894.55	0.00106584
2895.45	0.00108699
2896.36	0.00110819
2897.27	0.00112944
2898.18	0.00115074
2899.09	0.00117209
2900	0.00119349
2900.91	0.00121494
2901.82	0.00123644
2902.73	0.00125799
2903.64	0.0012796
2904.55	0.00130126
2905.45	0.00132296
2906.36	0.00134473
2907.27	0.00136654
2908.18	0.00138845
2909.09	0.00141038
2910	0.00143236
2910.91	0.0014544
2911.82	0.00147649
2912.73	0.00149863
2913.64	0.00152085
2914.55	0.0015431
2915.45	0.00156542
2916.36	0.00158769
2917.27	0.00161012
2918.18	0.0016326
2919.09	0.00165515
2920	0.00167775
2920.91	0.00170042
2921.82	0.00172314
2922.73	0.00174593
2923.64	0.00176878
2924.55	0.00179168
2925.45	0.00181465
2926.36	0.00183768
2927.27	0.00186077
2928.18	0.00188393
2929.09	0.00190715
2930	0.00193044
2930.91	0.00195379
2931.82	0.00197721
2932.73	0.00200069
2933.64	0.00202424
2934.55	0.00204754
2935.45	0.00207122
2936.36	0.00209497
2937.27	0.00211879
2938.18	0.00214267
2939.09	0.00216663
2940	0.00219066
2940.91	0.00221476
2941.82	0.00223892
2942.73	0.00226315
2943.64	0.00228746
2944.55	0.00231185
2945.45	0.00233631
2946.36	0.00236084
2947.27	0.00238545
2948.18	0.00241013
2949.09	0.00243489
2950	0.00245973
2950.91	0.00248464
2951.82	0.00250963
2952.73	0.00253498
2953.64	0.00256013
2954.55	0.00258536
2955.45	0.00261067
2956.36	0.00263605
2957.27	0.00266153
2958.18	0.00268708
2959.09	0.00271271
2960	0.00273843
2960.91	0.00276424
2961.82	0.00279013
2962.73	0.00281625
2963.64	0.00284231
2964.55	0.00286846
2965.45	0.0028947
2966.36	0.00292102
2967.27	0.00294744
2968.18	0.00297394
2969.09	0.00300054
2970	0.00302723
2970.91	0.00305401
2971.82	0.00308088
2972.73	0.00310785
2973.64	0.00313491
2974.55	0.00316207
2975.45	0.00318933
2976.36	0.00321668
2977.27	0.00324413
2978.18	0.00327169
2979.09	0.00329934
2980	0.00332709
2980.91	0.00335495
2981.82	0.0033829
2982.73	0.00341097
2983.64	0.00343913
2984.55	0.00346741
2985.45	0.00349578
2986.36	0.00352427
2987.27	0.00355287
2988.18	0.00358157
2989.09	0.00361039
2990	0.00363932
2990.91	0.00366836
2991.82	0.00369752
2992.73	0.00372679
2993.64	0.00375617
2994.55	0.00378568
2995.45	0.0038153
2996.36	0.00384504
2997.27	0.0038749
2998.18	0.00390489
2999.09	0.00393499
